#log(T)   bin22   bin42   bin52   bin62     sin22   sin42   sin52   sin62
#years   lg_Nion lg_Nion lg_Nion lg_Nion   lg_Nion lg_Nion lg_Nion lg_Nion
#       per_Msun perMsun perMsun perMsun  per_Msun perMsun perMsun perMsun
#	 Z=1e-4  Z=4e-3  Z=8e-3  Z=0.02	   Z=1e-4  Z=4e-3  Z=8e-3  Z=0.02
#Z/Zsun=  0.005   0.2     0.4     1.0       0.005   0.2     0.4     1.0
#
5.1000   59.3207 59.2705 59.2716 59.2883   59.3207 59.2705 59.2716 59.2883
5.1500   59.3707 59.3205 59.3216 59.3383   59.3707 59.3205 59.3216 59.3383
5.2000   59.4207 59.3705 59.3716 59.3883   59.4207 59.3705 59.3716 59.3883
5.2500   59.4707 59.4205 59.4216 59.4383   59.4707 59.4205 59.4216 59.4383
5.3000   59.5207 59.4705 59.4716 59.4883   59.5207 59.4705 59.4716 59.4883
5.3500   59.5707 59.5205 59.5216 59.5383   59.5707 59.5205 59.5216 59.5383
5.4000   59.6211 59.5705 59.5716 59.5883   59.6211 59.5705 59.5716 59.5883
5.4500   59.6714 59.6205 59.6216 59.6383   59.6714 59.6205 59.6216 59.6383
5.5000   59.7218 59.6705 59.6716 59.6883   59.7218 59.6705 59.6716 59.6883
5.5500   59.7720 59.7205 59.7216 59.7383   59.7720 59.7205 59.7216 59.7383
5.6000   59.8220 59.7705 59.7716 59.7883   59.8220 59.7705 59.7716 59.7883
5.6500   59.8723 59.8205 59.8216 59.8383   59.8723 59.8205 59.8216 59.8383
5.7000   59.9228 59.8705 59.8716 59.8883   59.9228 59.8705 59.8716 59.8883
5.7500   59.9738 59.9205 59.9216 59.9383   59.9738 59.9205 59.9216 59.9383
5.8000   60.0252 59.9705 59.9716 59.9883   60.0252 59.9705 59.9716 59.9883
5.8500   60.0781 60.0205 60.0216 60.0383   60.0781 60.0205 60.0216 60.0383
5.9000   60.1317 60.0705 60.0716 60.0883   60.1317 60.0705 60.0716 60.0883
5.9500   60.1859 60.1205 60.1216 60.1383   60.1859 60.1205 60.1216 60.1383
6.0000   60.2332 60.1741 60.1737 60.1844   60.2343 60.1746 60.1741 60.1838
6.0200   60.2527 60.1960 60.1949 60.2028   60.2543 60.1967 60.1953 60.2021
6.0400   60.2728 60.2185 60.2163 60.2212   60.2748 60.2190 60.2166 60.2203
6.0600   60.2933 60.2413 60.2380 60.2394   60.2957 60.2417 60.2381 60.2385
6.0800   60.3141 60.2643 60.2598 60.2576   60.3170 60.2644 60.2595 60.2566
6.1000   60.3354 60.2874 60.2817 60.2757   60.3385 60.2872 60.2810 60.2745
6.1200   60.3569 60.3106 60.3036 60.2937   60.3603 60.3100 60.3024 60.2923
6.1400   60.3787 60.3338 60.3256 60.3116   60.3822 60.3328 60.3238 60.3100
6.1600   60.4008 60.3570 60.3475 60.3295   60.4042 60.3555 60.3452 60.3276
6.1800   60.4231 60.3801 60.3694 60.3472   60.4264 60.3782 60.3665 60.3451
6.2000   60.4458 60.4033 60.3913 60.3648   60.4487 60.4008 60.3879 60.3627
6.2200   60.4687 60.4263 60.4131 60.3822   60.4711 60.4234 60.4093 60.3803
6.2400   60.4920 60.4494 60.4347 60.3995   60.4937 60.4460 60.4307 60.3979
6.2600   60.5156 60.4723 60.4563 60.4165   60.5165 60.4686 60.4521 60.4153
6.2800   60.5396 60.4952 60.4775 60.4330   60.5395 60.4910 60.4733 60.4324
6.3000   60.5639 60.5178 60.4984 60.4491   60.5628 60.5133 60.4941 60.4488
6.3200   60.5886 60.5400 60.5187 60.4644   60.5866 60.5352 60.5143 60.4643
6.3400   60.6136 60.5619 60.5384 60.4790   60.6108 60.5567 60.5337 60.4787
6.3600   60.6389 60.5834 60.5574 60.4929   60.6353 60.5778 60.5524 60.4922
6.3800   60.6643 60.6044 60.5759 60.5063   60.6600 60.5984 60.5703 60.5048
6.4000   60.6896 60.6251 60.5937 60.5192   60.6846 60.6185 60.5876 60.5169
6.4200   60.7147 60.6454 60.6111 60.5319   60.7089 60.6381 60.6043 60.5288
6.4400   60.7393 60.6653 60.6281 60.5446   60.7326 60.6571 60.6205 60.5408
6.4600   60.7632 60.6848 60.6447 60.5573   60.7554 60.6755 60.6362 60.5529
6.4800   60.7863 60.7037 60.6608 60.5698   60.7770 60.6931 60.6514 60.5650
6.5000   60.8084 60.7218 60.6764 60.5821   60.7972 60.7098 60.6660 60.5769
6.5200   60.8293 60.7390 60.6913 60.5939   60.8157 60.7254 60.6798 60.5884
6.5400   60.8491 60.7552 60.7056 60.6051   60.8327 60.7398 60.6928 60.5992
6.5600   60.8676 60.7703 60.7190 60.6155   60.8480 60.7530 60.7049 60.6092
6.5800   60.8850 60.7843 60.7316 60.6252   60.8619 60.7651 60.7161 60.6183
6.6000   60.9014 60.7974 60.7432 60.6341   60.8745 60.7761 60.7263 60.6265
6.6200   60.9170 60.8096 60.7538 60.6422   60.8859 60.7862 60.7357 60.6339
6.6400   60.9318 60.8210 60.7634 60.6497   60.8964 60.7953 60.7442 60.6406
6.6600   60.9458 60.8316 60.7720 60.6565   60.9061 60.8035 60.7519 60.6466
6.6800   60.9592 60.8415 60.7798 60.6627   60.9149 60.8107 60.7587 60.6519
6.7000   60.9719 60.8506 60.7868 60.6682   60.9231 60.8171 60.7646 60.6568
6.7200   60.9840 60.8590 60.7932 60.6731   60.9306 60.8225 60.7698 60.6611
6.7400   60.9953 60.8666 60.7990 60.6775   60.9375 60.8272 60.7743 60.6649
6.7600   61.0059 60.8734 60.8043 60.6814   60.9438 60.8311 60.7780 60.6683
6.7800   61.0159 60.8796 60.8091 60.6848   60.9495 60.8343 60.7812 60.6710
6.8000   61.0252 60.8851 60.8135 60.6880   60.9547 60.8371 60.7838 60.6733
6.8200   61.0338 60.8901 60.8174 60.6910   60.9594 60.8394 60.7858 60.6749
6.8400   61.0418 60.8945 60.8208 60.6937   60.9636 60.8414 60.7875 60.6761
6.8600   61.0492 60.8985 60.8238 60.6964   60.9673 60.8431 60.7889 60.6770
6.8800   61.0560 60.9020 60.8265 60.6988   60.9707 60.8446 60.7899 60.6776
6.9000   61.0623 60.9052 60.8289 60.7012   60.9736 60.8458 60.7908 60.6781
6.9200   61.0681 60.9081 60.8310 60.7033   60.9762 60.8469 60.7915 60.6785
6.9400   61.0735 60.9107 60.8330 60.7053   60.9785 60.8477 60.7920 60.6787
6.9600   61.0784 60.9131 60.8348 60.7071   60.9805 60.8485 60.7925 60.6790
6.9800   61.0828 60.9153 60.8365 60.7087   60.9822 60.8491 60.7929 60.6792
7.0000   61.0869 60.9173 60.8381 60.7102   60.9836 60.8496 60.7932 60.6794
7.0200   61.0906 60.9192 60.8396 60.7116   60.9849 60.8500 60.7934 60.6795
7.0400   61.0940 60.9210 60.8409 60.7129   60.9860 60.8503 60.7936 60.6797
7.0600   61.0969 60.9226 60.8422 60.7141   60.9869 60.8506 60.7938 60.6798
7.0800   61.0995 60.9240 60.8433 60.7152   60.9877 60.8508 60.7940 60.6798
7.1000   61.1018 60.9254 60.8444 60.7162   60.9884 60.8510 60.7941 60.6799
7.1200   61.1037 60.9267 60.8453 60.7172   60.9890 60.8512 60.7942 60.6800
7.1400   61.1053 60.9279 60.8462 60.7181   60.9895 60.8513 60.7943 60.6800
7.1600   61.1066 60.9290 60.8471 60.7189   60.9899 60.8514 60.7944 60.6801
7.1800   61.1078 60.9300 60.8478 60.7197   60.9902 60.8515 60.7944 60.6801
7.2000   61.1088 60.9309 60.8485 60.7204   60.9905 60.8516 60.7945 60.6801
7.2200   61.1096 60.9318 60.8492 60.7210   60.9907 60.8517 60.7945 60.6801
7.2400   61.1104 60.9326 60.8498 60.7217   60.9909 60.8517 60.7945 60.6802
7.2600   61.1110 60.9334 60.8504 60.7223   60.9911 60.8517 60.7946 60.6802
7.2800   61.1116 60.9341 60.8509 60.7229   60.9913 60.8518 60.7946 60.6802
7.3000   61.1120 60.9347 60.8514 60.7234   60.9914 60.8518 60.7946 60.6802
7.3200   61.1124 60.9353 60.8519 60.7240   60.9915 60.8518 60.7946 60.6802
7.3400   61.1127 60.9357 60.8524 60.7244   60.9916 60.8518 60.7946 60.6802
7.3600   61.1130 60.9361 60.8528 60.7249   60.9917 60.8519 60.7947 60.6802
7.3800   61.1132 60.9365 60.8532 60.7253   60.9918 60.8519 60.7947 60.6802
7.4000   61.1133 60.9368 60.8536 60.7257   60.9918 60.8519 60.7947 60.6802
7.4200   61.1135 60.9372 60.8540 60.7261   60.9919 60.8519 60.7947 60.6802
7.4400   61.1136 60.9375 60.8544 60.7265   60.9919 60.8519 60.7947 60.6802
7.4624   61.1138 60.9378 60.8548 60.7270   60.9920 60.8519 60.7947 60.6802
7.4771   61.1139 60.9380 60.8550 60.7273   60.9920 60.8519 60.7947 60.6802
7.4914   61.1140 60.9382 60.8553 60.7275   60.9920 60.8519 60.7947 60.6803
7.5052   61.1141 60.9384 60.8555 60.7278   60.9920 60.8519 60.7947 60.6803
7.5185   61.1142 60.9386 60.8557 60.7281   60.9921 60.8519 60.7947 60.6803
7.5315   61.1142 60.9388 60.8560 60.7283   60.9921 60.8519 60.7947 60.6803
7.5441   61.1143 60.9390 60.8562 60.7286   60.9921 60.8519 60.7947 60.6803
7.5563   61.1144 60.9392 60.8564 60.7288   60.9921 60.8520 60.7947 60.6803
7.5682   61.1145 60.9393 60.8565 60.7291   60.9921 60.8520 60.7947 60.6803
7.5798   61.1145 60.9395 60.8567 60.7293   60.9921 60.8520 60.7947 60.6803
7.5911   61.1146 60.9396 60.8569 60.7295   60.9921 60.8520 60.7947 60.6803
7.6021   61.1147 60.9397 60.8570 60.7297   60.9921 60.8520 60.7947 60.6803
7.6284   61.1148 60.9401 60.8574 60.7301   60.9921 60.8520 60.7947 60.6803
7.6532   61.1149 60.9404 60.8578 60.7305   60.9921 60.8520 60.7947 60.6803
7.6767   61.1151 60.9407 60.8581 60.7309   60.9921 60.8520 60.7947 60.6803
7.6990   61.1152 60.9410 60.8584 60.7312   60.9921 60.8520 60.7947 60.6803
7.7202   61.1153 60.9412 60.8587 60.7316   60.9922 60.8520 60.7947 60.6803
7.7404   61.1154 60.9415 60.8590 60.7319   60.9922 60.8520 60.7947 60.6803
7.7565   61.1155 60.9417 60.8592 60.7322   60.9922 60.8520 60.7947 60.6803
7.8065   61.1157 60.9422 60.8598 60.7331   60.9922 60.8520 60.7948 60.6803
7.8565   61.1159 60.9426 60.8604 60.7339   60.9922 60.8520 60.7948 60.6803
7.9065   61.1160 60.9430 60.8609 60.7345   60.9922 60.8520 60.7948 60.6804
7.9565   61.1162 60.9434 60.8614 60.7352   60.9922 60.8520 60.7948 60.6804
8.0065   61.1164 60.9439 60.8618 60.7357   60.9922 60.8520 60.7948 60.6804
8.0565   61.1165 60.9444 60.8623 60.7362   60.9922 60.8520 60.7948 60.6804
8.1065   61.1166 60.9447 60.8628 60.7366   60.9922 60.8520 60.7948 60.6805
8.1565   61.1167 60.9450 60.8632 60.7371   60.9922 60.8520 60.7949 60.6805
8.2065   61.1168 60.9453 60.8636 60.7376   60.9922 60.8521 60.7949 60.6805
8.2565   61.1169 60.9456 60.8639 60.7379   60.9922 60.8521 60.7949 60.6805
8.3065   61.1169 60.9458 60.8642 60.7382   60.9922 60.8521 60.7949 60.6806
8.3565   61.1170 60.9461 60.8644 60.7385   60.9922 60.8521 60.7949 60.6806
8.4065   61.1170 60.9463 60.8646 60.7388   60.9922 60.8521 60.7950 60.6806
8.4565   61.1170 60.9465 60.8648 60.7390   60.9922 60.8521 60.7950 60.6807
8.5065   61.1171 60.9466 60.8650 60.7392   60.9922 60.8521 60.7950 60.6807
8.5565   61.1171 60.9468 60.8652 60.7393   60.9922 60.8522 60.7950 60.6807
8.6065   61.1171 60.9469 60.8653 60.7393   60.9922 60.8522 60.7950 60.6808
8.6565   61.1171 60.9470 60.8654 60.7394   60.9922 60.8522 60.7950 60.6808
8.7065   61.1171 60.9471 60.8655 60.7395   60.9922 60.8522 60.7951 60.6808
8.7565   61.1171 60.9472 60.8655 60.7395   60.9922 60.8522 60.7951 60.6808
8.8065   61.1171 60.9473 60.8656 60.7396   60.9922 60.8522 60.7951 60.6809
8.8565   61.1172 60.9473 60.8656 60.7396   60.9922 60.8522 60.7951 60.6809
8.9065   61.1172 60.9473 60.8657 60.7397   60.9922 60.8523 60.7951 60.6809
8.9565   61.1172 60.9474 60.8657 60.7397   60.9922 60.8523 60.7952 60.6810
9.0065   61.1172 60.9474 60.8657 60.7398   60.9922 60.8523 60.7952 60.6810
9.0565   61.1172 60.9474 60.8658 60.7398   60.9922 60.8523 60.7952 60.6810
9.1065   61.1172 60.9474 60.8658 60.7398   60.9923 60.8523 60.7952 60.6811
9.1565   61.1172 60.9475 60.8658 60.7399   60.9923 60.8524 60.7952 60.6811
9.2066   61.1172 60.9475 60.8658 60.7399   60.9923 60.8524 60.7952 60.6811
9.2253   61.1172 60.9475 60.8658 60.7399   60.9923 60.8524 60.7953 60.6812
9.2304   61.1172 60.9475 60.8658 60.7399   60.9923 60.8524 60.7953 60.6812
9.2553   61.1172 60.9475 60.8658 60.7399   60.9923 60.8524 60.7953 60.6812
9.2788   61.1172 60.9475 60.8658 60.7399   60.9923 60.8525 60.7953 60.6812
9.3010   61.1172 60.9475 60.8658 60.7399   60.9923 60.8525 60.7953 60.6812
9.3222   61.1172 60.9475 60.8659 60.7400   60.9923 60.8525 60.7954 60.6813
9.3424   61.1172 60.9475 60.8659 60.7400   60.9923 60.8525 60.7954 60.6813
9.3617   61.1172 60.9476 60.8659 60.7400   60.9923 60.8525 60.7954 60.6813
9.3802   61.1172 60.9476 60.8659 60.7400   60.9923 60.8525 60.7954 60.6814
9.3979   61.1172 60.9476 60.8659 60.7400   60.9923 60.8525 60.7954 60.6814
9.4150   61.1172 60.9476 60.8659 60.7400   60.9923 60.8526 60.7955 60.6814
9.4393   61.1172 60.9476 60.8659 60.7400   60.9923 60.8526 60.7955 60.6815
9.4771   61.1173 60.9476 60.8659 60.7401   60.9923 60.8526 60.7955 60.6815
9.5119   61.1173 60.9476 60.8659 60.7401   60.9923 60.8526 60.7955 60.6816
9.5441   61.1173 60.9476 60.8659 60.7401   60.9923 60.8526 60.7956 60.6817
9.5740   61.1173 60.9476 60.8660 60.7402   60.9923 60.8527 60.7956 60.6817
9.6021   61.1173 60.9476 60.8660 60.7402   60.9923 60.8527 60.7956 60.6818
9.6284   61.1173 60.9476 60.8660 60.7402   60.9923 60.8527 60.7957 60.6818
9.6532   61.1173 60.9476 60.8660 60.7402   60.9923 60.8527 60.7957 60.6818
9.6767   61.1173 60.9477 60.8660 60.7402   60.9923 60.8527 60.7957 60.6819
9.6990   61.1173 60.9477 60.8660 60.7403   60.9923 60.8527 60.7957 60.6819
9.7202   61.1173 60.9477 60.8660 60.7403   60.9923 60.8528 60.7958 60.6820
9.7404   61.1173 60.9477 60.8660 60.7403   60.9923 60.8528 60.7958 60.6820
9.7597   61.1173 60.9477 60.8660 60.7403   60.9923 60.8528 60.7958 60.6821
9.7782   61.1173 60.9477 60.8661 60.7403   60.9923 60.8528 60.7958 60.6821
9.7959   61.1173 60.9477 60.8661 60.7403   60.9923 60.8528 60.7958 60.6821
9.8129   61.1173 60.9477 60.8661 60.7403   60.9923 60.8528 60.7958 60.6821
9.8293   61.1173 60.9477 60.8661 60.7404   60.9923 60.8528 60.7959 60.6822
9.8451   61.1173 60.9477 60.8661 60.7404   60.9923 60.8528 60.7959 60.6822
9.8603   61.1173 60.9477 60.8661 60.7404   60.9923 60.8528 60.7959 60.6822
9.8751   61.1173 60.9477 60.8661 60.7404   60.9923 60.8528 60.7959 60.6822
9.8893   61.1173 60.9477 60.8661 60.7404   60.9923 60.8529 60.7959 60.6823
9.9031   61.1173 60.9477 60.8661 60.7404   60.9923 60.8529 60.7959 60.6823
9.9165   61.1173 60.9477 60.8661 60.7404   60.9923 60.8529 60.7959 60.6823
9.9294   61.1173 60.9477 60.8661 60.7404   60.9923 60.8529 60.7959 60.6823
9.9420   61.1173 60.9477 60.8661 60.7404   60.9923 60.8529 60.7959 60.6823
9.9542   61.1173 60.9477 60.8661 60.7404   60.9923 60.8529 60.7960 60.6824
9.9661   61.1173 60.9477 60.8661 60.7404   60.9923 60.8529 60.7960 60.6824
9.9777   61.1173 60.9477 60.8661 60.7405   60.9923 60.8529 60.7960 60.6824
9.9890   61.1173 60.9477 60.8661 60.7405   60.9923 60.8529 60.7960 60.6824
10.0000   61.1173 60.9477 60.8661 60.7405   60.9923 60.8529 60.7960 60.6824
10.0107   61.1173 60.9478 60.8661 60.7405   60.9923 60.8529 60.7960 60.6825
10.0212   61.1173 60.9478 60.8662 60.7405   60.9923 60.8529 60.7960 60.6825
10.0314   61.1173 60.9478 60.8662 60.7405   60.9924 60.8530 60.7960 60.6825
10.0414   61.1173 60.9478 60.8662 60.7405   60.9924 60.8530 60.7960 60.6825
10.0512   61.1173 60.9478 60.8662 60.7405   60.9924 60.8530 60.7960 60.6825
10.0607   61.1173 60.9478 60.8662 60.7405   60.9924 60.8530 60.7960 60.6826
10.0700   61.1173 60.9478 60.8662 60.7405   60.9924 60.8530 60.7961 60.6826
10.0792   61.1173 60.9478 60.8662 60.7405   60.9924 60.8530 60.7961 60.6826
10.0881   61.1173 60.9478 60.8662 60.7405   60.9924 60.8530 60.7961 60.6826
10.0969   61.1174 60.9478 60.8662 60.7406   60.9924 60.8530 60.7961 60.6826
10.1055   61.1174 60.9478 60.8662 60.7406   60.9924 60.8530 60.7961 60.6826
10.1139   61.1174 60.9478 60.8662 60.7406   60.9924 60.8530 60.7961 60.6826
10.1222   61.1174 60.9478 60.8662 60.7406   60.9924 60.8530 60.7961 60.6826
10.1303   61.1174 60.9478 60.8662 60.7406   60.9924 60.8530 60.7961 60.6827
10.1383   61.1174 60.9478 60.8662 60.7406   60.9924 60.8530 60.7961 60.6827
10.1461   61.1174 60.9478 60.8662 60.7406   60.9924 60.8530 60.7961 60.6827
10.1538   61.1174 60.9478 60.8662 60.7406   60.9924 60.8530 60.7961 60.6827
10.1614   61.1174 60.9478 60.8662 60.7406   60.9924 60.8530 60.7961 60.6827
10.1688   61.1174 60.9478 60.8662 60.7406   60.9924 60.8530 60.7962 60.6827
10.1761   61.1174 60.9478 60.8662 60.7406   60.9924 60.8530 60.7962 60.6827
10.1833   61.1174 60.9478 60.8662 60.7406   60.9924 60.8530 60.7962 60.6827
10.1903   61.1174 60.9478 60.8662 60.7406   60.9924 60.8530 60.7962 60.6827
10.1973   61.1174 60.9478 60.8662 60.7406   60.9924 60.8530 60.7962 60.6827
10.2041   61.1174 60.9478 60.8662 60.7406   60.9924 60.8531 60.7962 60.6827
10.2109   61.1174 60.9478 60.8662 60.7406   60.9924 60.8531 60.7962 60.6828
10.2175   61.1174 60.9478 60.8662 60.7406   60.9924 60.8531 60.7962 60.6828
10.2240   61.1174 60.9478 60.8662 60.7406   60.9924 60.8531 60.7962 60.6828
10.2304   61.1174 60.9478 60.8663 60.7406   60.9924 60.8531 60.7962 60.6828
10.2368   61.1174 60.9478 60.8663 60.7407   60.9924 60.8531 60.7962 60.6829
10.2430   61.1174 60.9478 60.8663 60.7407   60.9924 60.8531 60.7962 60.6829
10.2492   61.1174 60.9478 60.8663 60.7407   60.9924 60.8531 60.7962 60.6830
10.2553   61.1174 60.9478 60.8663 60.7407   60.9924 60.8531 60.7962 60.6830
10.2613   61.1174 60.9478 60.8663 60.7407   60.9924 60.8531 60.7962 60.6831
10.2672   61.1174 60.9478 60.8663 60.7407   60.9924 60.8531 60.7962 60.6831
10.2730   61.1174 60.9478 60.8663 60.7407   60.9924 60.8531 60.7963 60.6831
10.2788   61.1174 60.9478 60.8663 60.7407   60.9924 60.8531 60.7963 60.6832
10.2844   61.1174 60.9478 60.8663 60.7407   60.9924 60.8531 60.7963 60.6832
10.2900   61.1174 60.9478 60.8663 60.7407   60.9924 60.8531 60.7963 60.6832
10.2956   61.1174 60.9478 60.8663 60.7407   60.9924 60.8531 60.7963 60.6832
10.3010   61.1174 60.9478 60.8663 60.7407   60.9924 60.8531 60.7963 60.6832